# Kontrastmessung
#
# phi/deg	v_max/volts	v_min/volts
   0		2.22		1.97
   5		2.32		1.50
  10		2.84		1.25
  15		3.20		0.98
  20		3.14		0.74
  25		2.90		0.46
  30		2.66		0.29
  35		2.60		0.16
  40		2.48		0.10
  45		2.40		0.06
  50		1.76		0.05
  55		1.32		0.06
  60		1.13		0.08
  65		0.96		0.10
  70		0.55		0.11
  75		0.40		0.13
  80		0.19		0.09
  85		0.10		0.06
  90		0.05		0.04
  95		0.04		0.04
 100		0.04		0.08
 105		0.05		0.13
 110		0.08		0.28
 115		0.09		0.37
 120		0.08		0.74
 125		0.07		1.07
 130		0.06		1.37
 135		0.06		1.64
 140		0.09		1.80
 145		0.15		2.30
 150		0.28		2.20
 155		0.46		2.50
 160		0.67		2.39
 165		0.97		2.40
 170		1.27		2.24
 175		1.65		2.12
 180		2.05		1.78
